File: src/data/materials/ss304-thermal-conductivity.csv
Temperature [Â°C],Thermal Conductivity [W/(m*K)]
23.97,14.8618
92.8839,16.0813
119.85,16.6504
200.749,17.8699
299.625,19.3333
362.547,20.2276
437.453,21.4472
566.292,23.1545
701.124,25.0244
817.978,26.4878