File: src/data/materials/ss310-thermal-conductivity.csv
Temperature [Â°C],Thermal Conductivity [W/(m*K)]
-266.544,0.38961
-213.971,4.87013
-170.956,7.20779
-99.2647,9.54545
-22.7941,11.4935
96.6912,14.026
254.412,16.9481
421.691,19.6753
608.088,22.5974
780.147,25.1299
995.221,28.0519